# ib, Total elec. energy diff. from ref. (eV)
   1025      0.9994
   1026      0.9994
   1027      1.0225
   1028      1.0262
   1029      1.0262
   1030      1.1361
   1031      1.1361
   1032      1.1537
   1033      1.1537
   1034      1.1855
   1035      1.2375
   1036      1.2375
   1037      1.3107
   1038      1.3107
   1039      1.3240
   1040      1.3240
   1041      1.4418
   1042      1.4418
   1043      1.4418
   1044      1.4418
   1045      1.4624
   1046      1.4624
   1047      1.4654
   1048      1.4654
   1049      1.4792
   1050      1.4792
   1051      1.4846
   1052      1.4846
   1053      1.4846
   1054      1.4846
   1055      1.5142
   1056      1.5757
   1057      1.5757
   1058      1.5836
   1059      1.5836
   1060      1.5836
   1061      1.5836
   1062      1.6262
   1063      1.6262
   1064      1.6814
   1065      1.6814
   1066      1.7327
   1067      1.7327
   1068      1.7536
   1069      1.7536
   1070      1.7536
   1071      1.7536
   1072      1.7942
   1073      1.7942
   1074      1.7942
   1075      1.7942
   1076      1.7960
   1077      1.7960
   1078      1.8041
   1079      1.8116
   1080      1.8116
   1081      1.8319
   1082      1.8319
   1083      1.8319
   1084      1.8319
   1085      1.8782
   1086      1.8782
   1087      1.8933
   1088      1.8933
